			Data Report


Test Item:1.15.17   Test Times:3
Test Date:2018-1-11 
Channel 1:
Range:100[N],Up.:0.00,Low.:100.00,Com.:100.00,Sense.:0.00,GravityAcceleration:9.800
Time[s]	Channel 1 [N]	
0.08	0.00
0.13	0.00
0.23	0.00
0.33	0.00
0.48	0.00
0.53	0.00
0.69	0.00
0.73	0.00
0.88	0.00
0.92	0.00
1.03	0.00
1.13	0.00
1.22	0.00
1.33	0.00
1.48	0.00
1.53	0.00
1.69	0.00
1.78	0.00
1.83	0.00
1.98	0.00
2.02	0.00
2.19	0.00
2.28	0.00
2.33	0.00
2.47	0.00
2.58	0.00
2.63	0.00
2.72	0.00
2.88	0.00
2.92	0.00
3.08	0.00
3.17	0.00
3.22	0.00
3.38	0.00
3.47	0.00
3.58	0.00
3.63	0.00
3.77	0.00
3.88	0.00
3.92	0.00
4.02	0.00
4.11	0.00
4.28	0.00
4.38	0.00
4.47	0.00
4.52	0.00
4.67	0.00
4.78	-3.38
4.81	-8.74
4.97	-8.74
5.08	-11.47
5.11	-11.45
5.22	-11.45
5.31	-11.11
5.41	-10.65
5.52	-10.06
5.61	-9.86
5.72	-9.80
5.86	-9.75
5.97	-9.75
6.06	-9.87
6.11	-9.81
6.27	-9.81
6.36	-9.77
6.41	-9.78
6.56	-9.78
6.67	-9.38
6.70	-9.25
6.81	-9.25
6.91	-9.14
7.02	-9.06
7.17	-9.09
7.27	-9.13
7.31	-9.18
7.41	-9.18
7.52	-9.18
7.67	-9.15
7.70	-9.15
7.86	-9.15
7.91	-10.28
8.06	-10.28
8.17	-15.88
8.27	-15.64
8.31	-14.65
8.47	-14.65
8.56	-13.53
8.61	-13.37
8.70	-13.37
8.81	-15.38
8.91	-17.43
9.00	-18.56
9.11	-18.85
9.25	-18.69
9.30	-18.10
9.41	-18.10
9.56	-18.52
9.61	-18.16
9.75	-18.16
9.86	-18.91
9.91	-18.87
10.06	-18.87
10.16	-18.41
10.20	-18.24
10.30	-18.24
10.45	-18.13
10.50	-18.92
10.59	-18.92
10.75	-18.68
10.80	-19.18
10.91	-19.18
11.06	-19.26
11.09	-18.99
11.25	-18.99
11.30	-18.45
11.39	-18.45
11.50	-18.40
11.59	-18.24
11.70	-18.18
11.80	-18.20
11.89	-18.19
12.00	-18.10
12.14	-18.13
12.20	-18.03
12.30	-18.03
12.39	-13.18
12.50	-11.01
12.59	-9.87
12.69	-9.19
12.84	-9.66
12.95	-10.38
13.05	-10.78
13.09	-11.29
13.25	-11.29
13.30	-11.84
13.45	-11.84
13.55	-11.78
13.59	-12.09
13.75	-12.09
13.80	-11.19
13.89	-11.19
13.98	-11.13
14.09	-10.98
14.19	-10.56
14.34	-10.23
14.39	-10.12
14.55	-10.12
14.64	-10.08
14.69	-10.13
14.78	-10.13
14.95	-10.20
14.98	-10.32
15.14	-10.32
15.25	-10.27
15.28	-10.45
15.44	-10.45
15.53	-13.94
15.59	-21.28
15.69	-21.28
15.78	-22.55
15.89	-22.96
16.03	-21.71
16.14	-20.38
16.19	-19.76
16.34	-19.76
16.44	-20.58
16.48	-20.15
16.64	-20.15
16.73	-18.52
16.78	-18.40
16.89	-18.40
16.98	-18.23
17.08	-17.74
17.23	-17.47
17.28	-17.43
17.38	-17.43
17.53	-18.38
17.58	-18.63
17.73	-18.63
17.78	-17.81
17.88	-17.81
17.98	-17.44
18.14	-17.44
18.19	-17.76
18.34	-17.76
18.44	-17.78
18.48	-17.19
18.58	-17.19
18.67	-11.32
18.78	-9.97
18.94	-10.29
19.03	-11.34
19.08	-11.71
19.17	-11.71
19.28	-11.29
19.44	-11.12
19.53	-10.74
19.63	-10.62
19.67	-10.60
19.78	-10.60
19.88	-10.64
19.97	-10.74
20.08	-10.77
20.23	-10.83
20.28	-10.69
20.44	-10.69
20.53	-18.75
20.63	-22.42
20.67	-23.77
20.83	-23.77
20.88	-23.14
20.97	-23.14
21.08	-21.54
21.17	-19.41
21.27	-18.49
21.38	-18.03
21.47	-17.78
21.63	-18.00
21.67	-18.80
21.83	-18.80
21.88	-19.13
22.02	-19.13
22.13	-19.93
22.17	-20.51
22.33	-20.51
22.42	-20.88
22.47	-20.16
22.56	-20.16
22.72	-19.53
22.77	-19.16
22.88	-19.16
22.97	-18.81
23.06	-18.66
23.22	-18.58
23.27	-18.41
23.36	-18.41
23.47	-18.25
23.56	-18.37
23.72	-18.68
23.83	-11.27
23.92	-11.21
24.02	-11.11
24.06	-11.02
24.16	-11.02
24.27	-11.19
24.36	-10.96
24.47	-10.50
24.56	-10.59
24.72	-10.68
24.77	-11.19
24.92	-11.19
24.97	-11.36
25.11	-11.36
25.22	-11.37
25.27	-11.34
25.36	-11.34
25.52	-11.31
25.56	-14.02
25.72	-14.02
25.81	-27.24
25.86	-27.07
26.02	-27.07
26.11	-24.65
26.22	-23.73
26.25	-23.82
26.36	-23.82
26.52	-21.92
26.56	-19.07
26.72	-19.07
26.75	-17.82
26.86	-17.82
27.02	-18.07
27.06	-18.06
27.22	-18.06
27.25	-18.47
27.41	-18.47
27.45	-18.74
27.55	-18.74
27.66	-18.69
27.75	-18.80
27.86	-18.61
28.00	-18.49
28.05	-18.53
28.16	-18.53
28.25	-18.64
28.36	-18.50
28.45	-18.35
28.61	-18.34
28.66	-18.19
28.80	-18.19
28.91	-18.30
28.95	-18.15
29.05	-18.15
29.16	-17.78
29.25	-17.72
29.34	-18.06
29.45	-18.27
29.61	-19.90
29.64	-30.05
29.75	-30.05
29.84	-33.05
30.00	-34.31
30.11	-36.79
30.14	-37.50
30.25	-37.50
30.34	-33.09
30.50	-30.97
30.55	-31.47
30.64	-31.47
30.75	-32.07
30.91	-31.42
31.00	-29.63
31.05	-28.81
31.20	-28.81
31.30	-27.88
31.34	-27.39
31.44	-27.39
31.59	-26.58
31.64	-24.99
31.75	-24.99
31.84	-24.64
31.94	-24.84
32.09	-25.13
32.20	-25.19
32.23	-25.33
32.34	-25.33
32.44	-25.95
32.59	-26.73
32.64	-26.87
32.73	-26.87
32.84	-27.75
33.00	-27.89
33.09	-29.36
33.20	-29.55
33.23	-29.11
33.34	-29.11
33.44	-28.78
33.53	-28.99
33.64	-28.89
33.80	-28.40
33.84	-27.42
33.94	-27.42
34.09	-25.80
34.14	-24.90
34.28	-24.90
34.39	-21.84
34.44	-15.43
34.53	-15.43
34.69	-10.82
34.73	-10.64
34.83	-10.64
34.94	-10.90
35.03	-10.63
35.14	-9.44
35.23	-9.16
35.33	-9.34
35.44	-9.28
35.53	-9.65
35.63	-10.18
35.78	-10.81
35.89	-10.68
35.98	-10.60
36.03	-10.53
36.19	-10.53
36.28	-10.40
36.33	-10.42
36.48	-10.42
36.59	-17.00
36.63	-27.84
36.78	-27.84
36.89	-35.74
36.92	-38.54
37.03	-38.54
37.13	-41.34
37.28	-44.99
37.33	-44.17
37.42	-44.17
37.58	-44.07
37.63	-47.03
37.78	-47.03
37.83	-42.91
37.98	-42.91
38.08	-30.77
38.13	-28.69
38.28	-28.69
38.38	-31.94
38.42	-30.92
38.58	-30.92
38.67	-28.15
38.72	-26.86
38.88	-26.86
38.92	-23.94
39.08	-23.94
39.13	-30.77
39.22	-30.77
39.33	-38.07
39.42	-37.49
39.52	-36.97
39.67	-37.32
39.72	-37.35
39.81	-37.35
39.92	-35.67
40.08	-31.17
40.17	-22.02
40.28	-20.40
40.31	-12.26
40.47	-12.26
40.56	-2.36
40.63	0.00
40.77	0.00
40.88	0.00
40.92	0.00
41.02	0.00
41.11	0.00
41.27	0.00
41.38	0.00
41.47	0.00
41.52	0.00
41.61	0.00
41.72	0.00
41.88	0.00
41.92	0.00
42.02	0.00
42.17	0.00
42.22	0.00
42.38	0.00
42.47	0.00
42.52	0.00
42.67	0.00
42.77	0.00
42.81	0.00
42.91	0.00
43.06	0.00
43.11	0.00
43.20	0.00
43.31	0.00
43.41	0.00
43.56	0.00
43.61	0.00
43.70	0.00
43.81	0.00
43.91	0.00
44.06	0.00
44.11	0.00
44.20	0.00
44.31	0.00
44.41	0.00
44.50	0.00
44.66	0.00
44.77	0.00
44.81	0.00

Channel 1: Max.=0.00[N],Min.=-47.03[N],Avg.=15.08[N]
